f (Hz), U1 (V), U2 (V), phi (grad)
59.0, 2.01, 0.205, 82.7
74.3,2.010,0.259,82.4
94.0,2.009,0.3276,79.8
148.5,2.009,0.5023,75.2
235.8,2.008,0.761,67.0
373.7,2.003,1.085,57.0
470.4,1.999,1.265,50.4
564.9, 1.995, 1.338, 45.0
589.5, 1.995, 1.425, 44.1
742.7,1.993,1.572,37.0
937.2,1.99,1.669,31.2
1485,1.981,1.841,21.0
2358,1.979,1.913,13.0
3737,1.976,1.946,9.0
4704,1.977,1.959,6.6
5895,1.979,1.961,6.0
9372,1.976,1.967,4.0
